trecsN6.txt
 -- Radiance Enhancement %
Wavelength | Impact Enhancement | Impact Error | Background Enhancement | Backgrdound Error
      6.90903     0.950000     0.993086     0.950000     0.993086
      6.93121      1.54898     0.209540      1.16237     0.209540
      6.95340      1.24141     0.117034      1.04356     0.117034
      6.97558      1.25657     0.104640      1.00791     0.104640
      6.99777      1.41978    0.0917387     0.996655    0.0917387
      7.01995      1.26175     0.107444      1.01979     0.107444
      7.04214      1.48881     0.196823      1.03366     0.196823
      7.06432      1.44126     0.118663      1.15606     0.118663
      7.08651      1.25685     0.157805      1.03501     0.157805
      7.10869      1.96560     0.225780      1.11291     0.225780
      7.13088      1.36451     0.146522      1.09952     0.146522
      7.15306      1.34738     0.119734     0.971908     0.119734
      7.17525      1.55903     0.133225     0.978823     0.133225
      7.19743      1.41502     0.127329      1.01451     0.127329
      7.21962      1.55359     0.126620      1.05109     0.126620
      7.24180      1.32996     0.106543      1.07071     0.106543
      7.26399      1.15002     0.130939     0.990842     0.130939
      7.28617      1.16830     0.158319      1.10420     0.158319
      7.30836      1.15481     0.118137      1.02611     0.118137
      7.33054      1.64349     0.196423      1.15197     0.196423
      7.35273      1.57715     0.281226      1.04527     0.281226
      7.37491      1.55304     0.191289      1.19747     0.191289
      7.39710      1.26747    0.0982818      1.05459    0.0982818
      7.41928      1.27261     0.101373      1.00690     0.101373
      7.44146      1.40093    0.0811348     0.966397    0.0811348
      7.46365      1.30410    0.0916458      1.00314    0.0916458
      7.48583      1.52719     0.188654      1.03404     0.188654
      7.50802      1.40373     0.116525      1.14398     0.116525
      7.53020      1.24976     0.167231      1.00062     0.167231
      7.55239      2.06329     0.228495      1.10170     0.228495
      7.57457      1.43575     0.152795      1.06372     0.152795
      7.59676      1.35431     0.120560     0.976881     0.120560
      7.61894      1.66250     0.157441     0.992754     0.157441
      7.64113      1.31727     0.152731      1.03882     0.152731
      7.66331      1.71281     0.225542      1.08654     0.225542
      7.68550      1.91903      2.79544      1.14404      2.79544
      7.70768      1.58351      14.4240      1.01828      14.4240
      7.72987      5.37076     0.380487      5.23723     0.380487
      7.75205      1.05377     0.126883      2.33975     0.126883
      7.77424     0.950000     0.190846     0.991453     0.190846
      7.79642     0.993761    0.0382403      1.01786    0.0382403
      7.81861     0.950000    0.0306155     0.959683    0.0306155
      7.84079      1.00655    0.0240287     0.986483    0.0240287
      7.86298     0.950000    0.0286190     0.990104    0.0286190
      7.88516     0.958404    0.0255727      1.00824    0.0255727
      7.90735      1.00197    0.0247916      1.02647    0.0247916
      7.92953     0.989372    0.0229758      1.00384    0.0229758
      7.95171      1.06233    0.0200286      1.01286    0.0200286
      7.97390      1.00491    0.0176795     0.997794    0.0176795
      7.99608      1.06859    0.0178017     0.995038    0.0178017
      8.01827     0.988801    0.0286179     0.976215    0.0286179
      8.04045      1.00462    0.0273259      1.01607    0.0273259
      8.06264     0.978301    0.0187874      1.00541    0.0187874
      8.08482      1.04751    0.0198314      1.01129    0.0198314
      8.10701      1.00183    0.0178748     0.989613    0.0178748
      8.12919      1.05834    0.0167017     0.999063    0.0167017
      8.15138      1.01746    0.0197919      1.00623    0.0197919
      8.17356      1.06278    0.0163496     0.978495    0.0163496
      8.19575      1.04667    0.0203655     0.978510    0.0203655
      8.21793      1.00407    0.0305139     0.966708    0.0305139
      8.24012      1.04707    0.0179974     0.978830    0.0179974
      8.26230      1.04582    0.0164122     0.971941    0.0164122
      8.28449      1.02894    0.0183403     0.984798    0.0183403
      8.30667      1.02577    0.0200652     0.984285    0.0200652
      8.32886      1.03214    0.0237437     0.988473    0.0237437
      8.35104      1.04239    0.0198417     0.983051    0.0198417
      8.37323      1.05691    0.0208362     0.978625    0.0208362
      8.39541      1.05556    0.0219674     0.981548    0.0219674
      8.41760      1.05400    0.0269725     0.980538    0.0269725
      8.43978      1.03892    0.0236615     0.979378    0.0236615
      8.46197      1.04399    0.0255787     0.978132    0.0255787
      8.48415      1.05055    0.0228270     0.984579    0.0228270
      8.50633      1.04458    0.0242199     0.980152    0.0242199
      8.52852      1.05520    0.0241054     0.980775    0.0241054
      8.55070      1.04616    0.0175671     0.982375    0.0175671
      8.57289      1.06590    0.0178823     0.986480    0.0178823
      8.59507      1.06278    0.0198095     0.990715    0.0198095
      8.61726      1.06486    0.0183534     0.986519    0.0183534
      8.63944      1.06197    0.0196104     0.988761    0.0196104
      8.66163      1.04616    0.0241352     0.970603    0.0241352
      8.68381      1.04480    0.0220579     0.990369    0.0220579
      8.70600      1.03712    0.0156000     0.991572    0.0156000
      8.72818      1.08771    0.0256834     0.976868    0.0256834
      8.75037      1.12112    0.0213891     0.998761    0.0213891
      8.77255      1.07973    0.0180750     0.969513    0.0180750
      8.79474      1.06152    0.0136210     0.987419    0.0136210
      8.81692      1.09592    0.0149383     0.993374    0.0149383
      8.83911      1.09705    0.0188849     0.991557    0.0188849
      8.86129      1.12170    0.0167642      1.00125    0.0167642
      8.88348      1.14442    0.0154192     0.995839    0.0154192
      8.90566      1.10526    0.0160252     0.997975    0.0160252
      8.92785      1.14241    0.0173435      1.00623    0.0173435
      8.95003      1.16457    0.0195768     0.997455    0.0195768
      8.97222      1.19233    0.0188404     0.989209    0.0188404
      8.99440      1.13767    0.0157230     0.972130    0.0157230
      9.01659      1.17124    0.0175992     0.993246    0.0175992
      9.03877      1.17629    0.0160706     0.990121    0.0160706
      9.06095      1.17057    0.0168988      1.00213    0.0168988
      9.08314      1.20986    0.0136443     0.998472    0.0136443
      9.10532      1.17043    0.0149410     0.992908    0.0149410
      9.12751      1.19836    0.0145084      1.00212    0.0145084
      9.14969      1.23100    0.0152717     0.988029    0.0152717
      9.17188      1.29865    0.0180984     0.984789    0.0180984
      9.19406      1.35867    0.0145465      1.00419    0.0145465
      9.21625      1.28055    0.0160989     0.977058    0.0160989
      9.23843      1.29839    0.0139119     0.993612    0.0139119
      9.26062      1.39811    0.0179446     0.991567    0.0179446
      9.28280      1.31765    0.0170266     0.985172    0.0170266
      9.30499      1.38258    0.0211061      1.00096    0.0211061
      9.32717      1.38847    0.0151542     0.999013    0.0151542
      9.34936      1.33237    0.0155118     0.988931    0.0155118
      9.37154      1.38417    0.0248101     0.997947    0.0248101
      9.39373      1.37238    0.0190665     0.990073    0.0190665
      9.41591      1.40631    0.0254231     0.970422    0.0254231
      9.43810      1.38869    0.0231056     0.960323    0.0231056
      9.46028      1.48510    0.0317058     0.992624    0.0317058
      9.48247      1.56704    0.0277541     0.983390    0.0277541
      9.50465      1.54668    0.0300524     0.975718    0.0300524
      9.52684      1.58366    0.0180962     0.983200    0.0180962
      9.54902      1.50634    0.0200646     0.979196    0.0200646
      9.57121      1.41858    0.0221254     0.997821    0.0221254
      9.59339      1.41312    0.0266755     0.993551    0.0266755
      9.61557      1.50645    0.0254475     0.972237    0.0254475
      9.63776      1.65371    0.0269083      1.00907    0.0269083
      9.65994      1.57792    0.0291498     0.961200    0.0291498
      9.68213      1.49461    0.0254199     0.989758    0.0254199
      9.70431      1.62663    0.0330505     0.985505    0.0330505
      9.72650      1.41547    0.0433734     0.980955    0.0433734
      9.74868      1.46770    0.0439729      1.00238    0.0439729
      9.77087      1.43823    0.0228368     0.995465    0.0228368
      9.79305      1.39389    0.0190896     0.991194    0.0190896
      9.81524      1.55177    0.0233593     0.999950    0.0233593
      9.83742      1.55920    0.0182112     0.990497    0.0182112
      9.85961      1.61143    0.0218683     0.972211    0.0218683
      9.88179      1.57761    0.0128456     0.973360    0.0128456
      9.90398      1.53307    0.0173356     0.986003    0.0173356
      9.92616      1.47698    0.0131250     0.975948    0.0131250
      9.94835      1.40366    0.0157905     0.986059    0.0157905
      9.97053      1.39030    0.0122836     0.984303    0.0122836
      9.99272      1.38297   0.00956757     0.992145   0.00956757
      10.0149      1.40550    0.0102048     0.998492    0.0102048
      10.0371      1.42016    0.0130417     0.989404    0.0130417
      10.0593      1.44524    0.0142437     0.980420    0.0142437
      10.0815      1.44630   0.00971312     0.999962   0.00971312
      10.1036      1.35484    0.0122443     0.974179    0.0122443
      10.1258      1.32185    0.0103932      1.00063    0.0103932
      10.1480      1.30908    0.0124741     0.989039    0.0124741
      10.1702      1.26423    0.0124974     0.991768    0.0124974
      10.1924      1.29361    0.0100791     0.986752    0.0100791
      10.2146      1.29346   0.00793846     0.996691   0.00793846
      10.2367      1.32146    0.0101090     0.995180    0.0101090
      10.2589      1.43452    0.0110123     0.991230    0.0110123
      10.2811      1.53096    0.0120648     0.998195    0.0120648
      10.3033      1.62483    0.0141121     0.982807    0.0141121
      10.3255      1.62837    0.0136123     0.978432    0.0136123
      10.3477      1.56410    0.0170274     0.990369    0.0170274
      10.3699      1.49999    0.0209253     0.983301    0.0209253
      10.3920      1.39704    0.0108834     0.988232    0.0108834
      10.4142      1.36684   0.00999071     0.988276   0.00999071
      10.4364      1.33501   0.00838499     0.995576   0.00838499
      10.4586      1.33490    0.0108676     0.982638    0.0108676
      10.4808      1.34462    0.0183854     0.993661    0.0183854
      10.5030      1.33294    0.0122655     0.992480    0.0122655
      10.5252      1.33939    0.0116906     0.991531    0.0116906
      10.5473      1.29206    0.0160383     0.987425    0.0160383
      10.5695      1.29617    0.0104357     0.998670    0.0104357
      10.5917      1.29788    0.0131872     0.996902    0.0131872
      10.6139      1.27746    0.0101297     0.999012    0.0101297
      10.6361      1.34185   0.00975393     0.995680   0.00975393
      10.6583      1.43164    0.0116879     0.991510    0.0116879
      10.6804      1.47188    0.0135826     0.985084    0.0135826
      10.7026      1.57291    0.0116224     0.996672    0.0116224
      10.7248      1.58779    0.0154797     0.996421    0.0154797
      10.7470      1.55596    0.0144658     0.989990    0.0144658
      10.7692      1.48658    0.0124469     0.988319    0.0124469
      10.7914      1.39827    0.0107798     0.993380    0.0107798
      10.8136      1.35812   0.00832599     0.987574   0.00832599
      10.8357      1.28662    0.0137896      1.00187    0.0137896
      10.8579      1.27930    0.0188418     0.996244    0.0188418
      10.8801      1.25150    0.0132692     0.989668    0.0132692
      10.9023      1.23260   0.00821797     0.984762   0.00821797
      10.9245      1.24650    0.0175634     0.995144    0.0175634
      10.9467      1.26273    0.0104671     0.996171    0.0104671
      10.9688      1.28613    0.0105390     0.995973    0.0105390
      10.9910      1.24298    0.0132977     0.994587    0.0132977
      11.0132      1.27469    0.0102709     0.996224    0.0102709
      11.0354      1.26520    0.0110873     0.997240    0.0110873
      11.0576      1.23375    0.0104138      1.00527    0.0104138
      11.0798      1.23198   0.00943494     0.996729   0.00943494
      11.1020      1.24142    0.0128246      1.00375    0.0128246
      11.1241      1.19916   0.00929721     0.990431   0.00929721
      11.1463      1.23055   0.00975633     0.999990   0.00975633
      11.1685      1.24727    0.0110538      1.00284    0.0110538
      11.1907      1.28044    0.0116719     0.996560    0.0116719
      11.2129      1.26793    0.0109150      1.00078    0.0109150
      11.2351      1.25098    0.0102366     0.998351    0.0102366
      11.2572      1.24753   0.00883317     0.998150   0.00883317
      11.2794      1.21541    0.0100443     0.997592    0.0100443
      11.3016      1.21794    0.0119856      1.00205    0.0119856
      11.3238      1.19172   0.00990584     0.984912   0.00990584
      11.3460      1.16700    0.0118880     0.986700    0.0118880
      11.3682      1.16792    0.0185275      1.00034    0.0185275
      11.3904      1.15924    0.0131496     0.994860    0.0131496
      11.4125      1.17496   0.00926244     0.991487   0.00926244
      11.4347      1.15491    0.0132165     0.993332    0.0132165
      11.4569      1.17915    0.0103177      1.00285    0.0103177
      11.4791      1.17184    0.0142910      1.00045    0.0142910
      11.5013      1.15268    0.0100755      1.00377    0.0100755
      11.5235      1.17803    0.0105242     0.997215    0.0105242
      11.5457      1.14951    0.0121065     0.991416    0.0121065
      11.5678      1.12116    0.0110804      1.00298    0.0110804
      11.5900      1.10496   0.00852905     0.984455   0.00852905
      11.6122      1.11555    0.0111930      1.00626    0.0111930
      11.6344      1.10761    0.0101983     0.998888    0.0101983
      11.6566      1.11012    0.0101981      1.00672    0.0101981
      11.6788      1.11866   0.00990753      1.00042   0.00990753
      11.7009      1.12753    0.0104319     0.999535    0.0104319
      11.7231      1.12718    0.0120678      1.00571    0.0120678
      11.7453      1.13140    0.0120338      1.00292    0.0120338
      11.7675      1.11482   0.00882571     0.992028   0.00882571
      11.7897      1.09668    0.0100169     0.994255    0.0100169
      11.8119      1.09622   0.00961613     0.994958   0.00961613
      11.8341      1.07573    0.0119172      1.00294    0.0119172
      11.8562      1.08015   0.00792318     0.993864   0.00792318
      11.8784      1.07633   0.00988213      1.00158   0.00988213
      11.9006      1.06947    0.0113660      1.00029    0.0113660
      11.9228      1.05275    0.0105857     0.997546    0.0105857
      11.9450      1.07996   0.00781803      1.00828   0.00781803
      11.9672      1.07863    0.0101749      1.00050    0.0101749
      11.9893      1.08966    0.0100773     0.996676    0.0100773
      12.0115      1.07467    0.0107032      1.00018    0.0107032
      12.0337      1.06166    0.0108108     0.991459    0.0108108
      12.0559      1.08150   0.00931908      1.00637   0.00931908
      12.0781      1.06448    0.0112017     0.993068    0.0112017
      12.1003      1.06424    0.0107059      1.00052    0.0107059
      12.1225      1.05394   0.00900485     0.993593   0.00900485
      12.1446      1.05199   0.00980475     0.997536   0.00980475
      12.1668      1.06742   0.00832810     0.996650   0.00832810
      12.1890      1.05726   0.00991215     0.992972   0.00991215
      12.2112      1.07176   0.00847477     0.994247   0.00847477
      12.2334      1.05878   0.00853082     0.998415   0.00853082
      12.2556      1.07762    0.0122927     0.999757    0.0122927
      12.2777      1.05961    0.0109859     0.994804    0.0109859
      12.2999      1.07017    0.0106527     0.993198    0.0106527
      12.3221      1.06979   0.00753478      1.00608   0.00753478
      12.3443      1.05473   0.00827073     0.998438   0.00827073
      12.3665      1.07022    0.0146701      1.01350    0.0146701
      12.3887      1.06351    0.0122902     0.992161    0.0122902
      12.4109      1.08656    0.0108310     0.992774    0.0108310
      12.4330      1.05557   0.00923562      1.00002   0.00923562
      12.4552      1.06070    0.0104763      1.00617    0.0104763
      12.4774      1.06849   0.00772882     0.998831   0.00772882
      12.4996      1.06657   0.00913012     0.995382   0.00913012
      12.5218      1.07047   0.00752576     0.998968   0.00752576
      12.5440      1.05654   0.00834169      1.00156   0.00834169
      12.5662      1.07248   0.00921778      1.00246   0.00921778
      12.5883      1.07500   0.00962231      1.00604   0.00962231
      12.6105      1.06420    0.0104381     0.993387    0.0104381
      12.6327      1.08862   0.00985815     0.995943   0.00985815
      12.6549      1.07626   0.00851778      1.00357   0.00851778
      12.6771      1.08050    0.0106246     0.994874    0.0106246
      12.6993      1.07278    0.0129374     0.996192    0.0129374
      12.7214      1.07849    0.0122913     0.994458    0.0122913
      12.7436      1.06771   0.00993110      1.00380   0.00993110
      12.7658      1.07624    0.0107362      1.00494    0.0107362
      12.7880      1.08285   0.00798911     0.999933   0.00798911
      12.8102      1.09576    0.0106803      1.01781    0.0106803
      12.8324      1.08962   0.00964715     0.997414   0.00964715
      12.8546      1.09663    0.0107802     0.996114    0.0107802
      12.8767      1.06915   0.00735971     0.998206   0.00735971
      12.8989      1.08708    0.0110369      1.00566    0.0110369
      12.9211      1.08237   0.00862362      1.00305   0.00862362
      12.9433      1.08066   0.00728121     0.991990   0.00728121
      12.9655      1.09235   0.00991986     0.995497   0.00991986
      12.9877      1.06277   0.00895946     0.997711   0.00895946
      13.0098      1.06984    0.0120925     0.999760    0.0120925
      13.0320      1.08783    0.0165680      1.01056    0.0165680
      13.0542      1.07672    0.0114149     0.993278    0.0114149
      13.0764      1.11380    0.0186966     0.995781    0.0186966
      13.0986      1.06683    0.0124090      1.01416    0.0124090
      13.1208      1.10636    0.0238427     0.984652    0.0238427
      13.1430      1.05963    0.0279306      1.00831    0.0279306
      13.1651      1.08196    0.0270662     0.990998    0.0270662
      13.1873      1.06911    0.0334977      1.00342    0.0334977
      13.2095      1.17465    0.0682018      1.05522    0.0682018
      13.2317      1.09974    0.0569626      1.04780    0.0569626
      13.2539      1.21048     0.110133      1.19424     0.110133
      13.2761      1.17020     0.125535     0.950231     0.125535
      13.2982      1.56945     0.627017     0.976760     0.627017
      13.3204      1.08530     0.416045      1.19624     0.416045
      13.3426      1.33789     0.453034      1.50425     0.453034
      13.3648      18.0352      3.99938      1.62511      3.99938
      13.3870      1.19520      1.00640      1.19466      1.00640
      13.4092      1.65508      9.45860      1.27297      9.45860
      13.4314      10.5857      1.05081      1.06929      1.05081
      13.4535      1.91578     0.628938      1.14948     0.628938
      13.4757      5.05250      1.00737      1.28026      1.00737
      13.4979      1.42751     0.129446      1.06127     0.129446
      13.5201      1.26171     0.236348      1.03246     0.236348
      13.5423      1.42121     0.125712     0.995505     0.125712
      13.5645      1.30758     0.403926      1.28286     0.403926
      13.5867      1.45899     0.764089      1.00974     0.764089
      13.6088      1.97357     0.976413      1.19780     0.976413
      13.6310      1.75923      7.98463      1.17957      7.98463
      13.6532      25.8463      3.16632      1.00955      3.16632
      13.6754      1.58329     0.221387     0.979359     0.221387
      13.6976      20.0871      1.64566      98.3747      1.64566
      13.7198      1.52461     0.157996      1.11390     0.157996
      13.7419      2.42580     0.513419      1.03989     0.513419
      13.7641      1.59050     0.199649     0.973672     0.199649
      13.7863      1.88695      5.34225     0.980498      5.34225
      13.8085      1.45810     0.149908      1.02915     0.149908
      13.8307      1.08253     0.623450      1.06310     0.623450
      13.8529      1.32878     0.294528      1.10441     0.294528
      13.8751      2.28560     0.232738      1.04936     0.232738
      13.8972      1.68383     0.338660      1.12605     0.338660
      13.9194      1.59753      10.9526      1.13440      10.9526
      13.9416      1.39436     0.114842      1.07367     0.114842
      13.9638      1.19427     0.192718      1.02107     0.192718
      13.9860         -NaN          NaN         -NaN          NaN
