trecsN2.txt
 -- Radiance Enhancement %
Wavelength | Impact Enhancement | Impact Error | Background Enhancement | Backgrdound Error
      6.90903     0.950000     0.986801     0.950000     0.986801
      6.93121      1.14081     0.101671      1.01982     0.101671
      6.95340      1.25932     0.160176      1.03144     0.160176
      6.97558      1.15777    0.0765527      1.10710    0.0765527
      6.99777      1.33372     0.216759      1.06457     0.216759
      7.01995      1.20809     0.127846      1.00836     0.127846
      7.04214      1.25513     0.105563      1.01994     0.105563
      7.06432      1.26620     0.123873      1.12108     0.123873
      7.08651      1.35733    0.0908297      1.04611    0.0908297
      7.10869      1.27086     0.221853      1.06102     0.221853
      7.13088      1.43409     0.171950      1.07510     0.171950
      7.15306      1.08217    0.0934321      1.00660    0.0934321
      7.17525      1.32287     0.120061      1.00419     0.120061
      7.19743      1.79988     0.324769      1.09082     0.324769
      7.21962      1.26401    0.0940774      1.03431    0.0940774
      7.24180      1.75818     0.212997      1.22979     0.212997
      7.26399      1.27125     0.101764      1.01605     0.101764
      7.28617      1.37208     0.220515      1.01863     0.220515
      7.30836      1.43312     0.116711     0.987279     0.116711
      7.33054      1.57587     0.333347      1.05144     0.333347
      7.35273      1.56767      1.95279      1.07941      1.95279
      7.37491      1.11061     0.108428      1.01854     0.108428
      7.39710      1.21987     0.153178      1.01013     0.153178
      7.41928      1.19632    0.0708243      1.09744    0.0708243
      7.44146      1.26732     0.209120      1.04681     0.209120
      7.46365      1.15074     0.106926     0.987370     0.106926
      7.48583      1.16498     0.108802      1.01553     0.108802
      7.50802      1.32615     0.115243      1.10784     0.115243
      7.53020      1.29448    0.0847128      1.02790    0.0847128
      7.55239      1.23448     0.163391      1.07794     0.163391
      7.57457      1.35436     0.151989      1.07219     0.151989
      7.59676      1.13715    0.0972605      1.00076    0.0972605
      7.61894      1.39903     0.112231      1.01172     0.112231
      7.64113      1.99382      1.40901      1.11186      1.40901
      7.66331      1.46164     0.204803      1.11696     0.204803
      7.68550      18.0666      1.55698      2.74677      1.55698
      7.70768      145.134     0.179805      1.05023     0.179805
      7.72987     0.950000     0.226786      5.81404     0.226786
      7.75205     0.950000     0.172740      50.6350     0.172740
      7.77424     0.950000     0.337103      4.51899     0.337103
      7.79642     0.950000    0.0243670     0.976126    0.0243670
      7.81861      1.01174    0.0274431     0.986770    0.0274431
      7.84079     0.959836    0.0156552      1.00571    0.0156552
      7.86298     0.987165    0.0200319     0.969047    0.0200319
      7.88516      1.03418    0.0226077     0.984788    0.0226077
      7.90735      1.04678    0.0182953      1.01346    0.0182953
      7.92953     0.982180    0.0199661     0.997997    0.0199661
      7.95171      1.03881    0.0259586     0.998852    0.0259586
      7.97390     0.982438    0.0143541     0.991913    0.0143541
      7.99608      1.02450    0.0178140     0.990180    0.0178140
      8.01827      1.01306    0.0211971     0.983071    0.0211971
      8.04045      1.02258    0.0183839      1.02440    0.0183839
      8.06264     0.987548    0.0271621     0.997057    0.0271621
      8.08482      1.03911    0.0176846     0.992409    0.0176846
      8.10701      1.01196    0.0186028     0.989898    0.0186028
      8.12919      1.03132    0.0197234      1.00216    0.0197234
      8.15138      1.02489    0.0174015      1.00295    0.0174015
      8.17356      1.05427    0.0172475      1.00306    0.0172475
      8.19575      1.00659    0.0183400      1.00343    0.0183400
      8.21793      1.00003    0.0237616     0.982822    0.0237616
      8.24012      1.03518    0.0180302     0.989918    0.0180302
      8.26230      1.06911    0.0203857     0.990973    0.0203857
      8.28449      1.06705    0.0142176     0.996634    0.0142176
      8.30667      1.07463    0.0260296     0.978412    0.0260296
      8.32886      1.07960    0.0277885     0.982903    0.0277885
      8.35104      1.07550    0.0218020     0.987313    0.0218020
      8.37323      1.06996    0.0281081     0.981922    0.0281081
      8.39541      1.10740    0.0308928     0.983016    0.0308928
      8.41760      1.08540    0.0280705     0.980721    0.0280705
      8.43978      1.09193    0.0300003     0.976260    0.0300003
      8.46197      1.09459    0.0302575     0.981817    0.0302575
      8.48415      1.09607    0.0285920     0.992468    0.0285920
      8.50633      1.07393    0.0291521     0.980432    0.0291521
      8.52852      1.07662    0.0339657     0.982823    0.0339657
      8.55070      1.08329    0.0210783     0.978451    0.0210783
      8.57289      1.07327    0.0282277     0.984305    0.0282277
      8.59507      1.07080    0.0248145     0.986750    0.0248145
      8.61726      1.09312    0.0161986     0.988664    0.0161986
      8.63944      1.07208    0.0175799     0.987476    0.0175799
      8.66163      1.05309    0.0259870     0.973562    0.0259870
      8.68381      1.05773    0.0227095     0.983715    0.0227095
      8.70600      1.06911    0.0341775     0.972099    0.0341775
      8.72818      1.06763    0.0165661     0.993200    0.0165661
      8.75037      1.13299    0.0157587      1.01320    0.0157587
      8.77255      1.10309    0.0150258     0.987765    0.0150258
      8.79474      1.11751    0.0113304     0.992167    0.0113304
      8.81692      1.14725    0.0192666     0.996335    0.0192666
      8.83911      1.14220    0.0152175     0.990713    0.0152175
      8.86129      1.19336    0.0194125     0.991331    0.0194125
      8.88348      1.15538    0.0157346     0.981464    0.0157346
      8.90566      1.18635    0.0248047      1.00122    0.0248047
      8.92785      1.22738    0.0147398      1.00811    0.0147398
      8.95003      1.19087    0.0144029     0.985912    0.0144029
      8.97222      1.14824   0.00991250     0.999880   0.00991250
      8.99440      1.19311    0.0222319     0.993274    0.0222319
      9.01659      1.15801    0.0139122     0.993085    0.0139122
      9.03877      1.16519   0.00971100     0.994731   0.00971100
      9.06095      1.19221    0.0203278     0.999308    0.0203278
      9.08314      1.21223    0.0197534     0.992199    0.0197534
      9.10532      1.24901    0.0155590      1.00163    0.0155590
      9.12751      1.22956    0.0145075     0.993720    0.0145075
      9.14969      1.26403    0.0278911     0.976785    0.0278911
      9.17188      1.26298   0.00662576     0.999346   0.00662576
      9.19406      1.33978    0.0146708      1.00886    0.0146708
      9.21625      1.34891    0.0124532     0.995356    0.0124532
      9.23843      1.35868    0.0106672     0.993306    0.0106672
      9.26062      1.38856    0.0226729     0.997929    0.0226729
      9.28280      1.40090    0.0164541     0.993473    0.0164541
      9.30499      1.46344    0.0222416     0.983400    0.0222416
      9.32717      1.45081    0.0160764     0.980421    0.0160764
      9.34936      1.43022    0.0261295      1.00258    0.0261295
      9.37154      1.46177    0.0188721     0.999990    0.0188721
      9.39373      1.43924    0.0161085     0.983270    0.0161085
      9.41591      1.39414    0.0167832      1.00414    0.0167832
      9.43810      1.43956    0.0257572     0.989190    0.0257572
      9.46028      1.40306    0.0237096     0.986974    0.0237096
      9.48247      1.47147    0.0220322     0.984699    0.0220322
      9.50465      1.52462    0.0313336      1.00557    0.0313336
      9.52684      1.60968    0.0260070     0.997567    0.0260070
      9.54902      1.63289    0.0219100      1.01116    0.0219100
      9.57121      1.48182    0.0196274      1.00276    0.0196274
      9.59339      1.52931    0.0669589     0.972231    0.0669589
      9.61557      1.43942    0.0225162      1.00033    0.0225162
      9.63776      1.63504    0.0202563      1.03113    0.0202563
      9.65994      1.60922    0.0234299     0.987762    0.0234299
      9.68213      1.58099    0.0246610     0.987978    0.0246610
      9.70431      1.63914    0.0338052      1.00013    0.0338052
      9.72650      1.51952    0.0647632     0.983925    0.0647632
      9.74868      1.51632    0.0671474     0.987117    0.0671474
      9.77087      1.44347    0.0231765     0.977638    0.0231765
      9.79305      1.50390    0.0312359      1.00571    0.0312359
      9.81524      1.56518    0.0247437      1.01542    0.0247437
      9.83742      1.59661    0.0147818     0.986496    0.0147818
      9.85961      1.53937    0.0106538      1.00992    0.0106538
      9.88179      1.60641    0.0189867     0.995348    0.0189867
      9.90398      1.49810    0.0145103     0.992870    0.0145103
      9.92616      1.45394    0.0171299     0.993714    0.0171299
      9.94835      1.39020    0.0187918      1.00400    0.0187918
      9.97053      1.40855    0.0166108     0.999699    0.0166108
      9.99272      1.44304    0.0154568      1.00276    0.0154568
      10.0149      1.43154    0.0139047     0.994587    0.0139047
      10.0371      1.46908    0.0213310     0.982648    0.0213310
      10.0593      1.41936    0.0110494      1.00017    0.0110494
      10.0815      1.43286    0.0141939      1.00803    0.0141939
      10.1036      1.42154    0.0122423     0.995375    0.0122423
      10.1258      1.33617   0.00755896     0.998212   0.00755896
      10.1480      1.31004    0.0129987      1.00330    0.0129987
      10.1702      1.29617    0.0129551     0.997136    0.0129551
      10.1924      1.32624    0.0173413     0.995310    0.0173413
      10.2146      1.31700    0.0125269     0.992737    0.0125269
      10.2367      1.36049    0.0200016     0.996071    0.0200016
      10.2589      1.47584    0.0105613     0.998921    0.0105613
      10.2811      1.55197    0.0127808     0.994426    0.0127808
      10.3033      1.62446   0.00677973      1.00237   0.00677973
      10.3255      1.65428    0.0184210     0.994303    0.0184210
      10.3477      1.57393    0.0276120     0.990209    0.0276120
      10.3699      1.52183    0.0297328     0.992196    0.0297328
      10.3920      1.40873    0.0121014     0.998845    0.0121014
      10.4142      1.37938    0.0124538     0.996134    0.0124538
      10.4364      1.38205    0.0101881      1.00430    0.0101881
      10.4586      1.34776    0.0154997     0.989846    0.0154997
      10.4808      1.40987    0.0164664     0.997565    0.0164664
      10.5030      1.35242    0.0141119      1.00675    0.0141119
      10.5252      1.36800    0.0138657     0.994801    0.0138657
      10.5473      1.37894    0.0129406     0.998160    0.0129406
      10.5695      1.33479    0.0170870     0.996974    0.0170870
      10.5917      1.27066    0.0108498      1.00457    0.0108498
      10.6139      1.32135    0.0108036     0.997750    0.0108036
      10.6361      1.34158    0.0119706      1.00871    0.0119706
      10.6583      1.42757    0.0112986     0.990258    0.0112986
      10.6804      1.52212    0.0148825     0.999366    0.0148825
      10.7026      1.60418    0.0132271      1.00329    0.0132271
      10.7248      1.66628    0.0161571     0.993188    0.0161571
      10.7470      1.60995    0.0123136     0.989753    0.0123136
      10.7692      1.52619    0.0122899     0.992856    0.0122899
      10.7914      1.45619    0.0104910     0.996907    0.0104910
      10.8136      1.37041    0.0144828      1.00351    0.0144828
      10.8357      1.30666    0.0158391     0.995844    0.0158391
      10.8579      1.33295    0.0198560      1.00766    0.0198560
      10.8801      1.25748    0.0164843      1.00696    0.0164843
      10.9023      1.25556    0.0148958     0.989927    0.0148958
      10.9245      1.29451    0.0152840      1.00034    0.0152840
      10.9467      1.26621    0.0132126      1.00823    0.0132126
      10.9688      1.32402    0.0118371     0.997441    0.0118371
      10.9910      1.36143    0.0117920      1.00449    0.0117920
      11.0132      1.30599    0.0151471     0.997254    0.0151471
      11.0354      1.27747    0.0120658      1.00750    0.0120658
      11.0576      1.28117    0.0106440     0.995328    0.0106440
      11.0798      1.23882    0.0131375      1.01226    0.0131375
      11.1020      1.24945   0.00873613     0.997211   0.00873613
      11.1241      1.27416    0.0160541      1.00331    0.0160541
      11.1463      1.27085    0.0109055      1.00358    0.0109055
      11.1685      1.27793    0.0144686     0.999803    0.0144686
      11.1907      1.31104    0.0106288     0.993750    0.0106288
      11.2129      1.31545    0.0115341      1.00447    0.0115341
      11.2351      1.30663   0.00875600     0.996803   0.00875600
      11.2572      1.26258    0.0122711     0.996947    0.0122711
      11.2794      1.24836    0.0127319      1.00000    0.0127319
      11.3016      1.24428   0.00989374     0.998542   0.00989374
      11.3238      1.20888    0.0127647      1.00210    0.0127647
      11.3460      1.17831    0.0110429     0.992811    0.0110429
      11.3682      1.22621    0.0137870      1.00210    0.0137870
      11.3904      1.18705    0.0100519      1.00311    0.0100519
      11.4125      1.20497   0.00899141     0.995833   0.00899141
      11.4347      1.22701    0.0102131     0.998925    0.0102131
      11.4569      1.21033    0.0136640     0.997618    0.0136640
      11.4791      1.18235    0.0132992      1.00608    0.0132992
      11.5013      1.17781   0.00929048     0.993154   0.00929048
      11.5235      1.15084    0.0114863      1.00404    0.0114863
      11.5457      1.15551   0.00757888     0.995500   0.00757888
      11.5678      1.15670    0.0109360      1.00178    0.0109360
      11.5900      1.11917   0.00666963      1.00017   0.00666963
      11.6122      1.11499    0.0142042     0.993777    0.0142042
      11.6344      1.12103   0.00976678     0.990429   0.00976678
      11.6566      1.12438   0.00898502     0.998221   0.00898502
      11.6788      1.13012   0.00747155     0.997322   0.00747155
      11.7009      1.13865    0.0103820     0.992295    0.0103820
      11.7231      1.12786   0.00813442     0.995598   0.00813442
      11.7453      1.11616   0.00921806     0.992219   0.00921806
      11.7675      1.10415   0.00868059     0.998374   0.00868059
      11.7897      1.10557   0.00824938     0.990275   0.00824938
      11.8119      1.10662   0.00891895     0.994297   0.00891895
      11.8341      1.07128    0.0109897     0.998562    0.0109897
      11.8562      1.07994   0.00843419     0.994959   0.00843419
      11.8784      1.08507   0.00848934     0.992601   0.00848934
      11.9006      1.07097   0.00984687     0.994922   0.00984687
      11.9228      1.05414    0.0101045     0.998402    0.0101045
      11.9450      1.05891   0.00557614     0.995673   0.00557614
      11.9672      1.07222    0.0103016     0.997381    0.0103016
      11.9893      1.06195   0.00850972     0.995204   0.00850972
      12.0115      1.08237    0.0109574     0.994595    0.0109574
      12.0337      1.07101   0.00846062     0.998127   0.00846062
      12.0559      1.06025   0.00791964     0.994447   0.00791964
      12.0781      1.07212   0.00724822     0.994888   0.00724822
      12.1003      1.06253   0.00884256      1.00083   0.00884256
      12.1225      1.06287   0.00775773     0.999294   0.00775773
      12.1446      1.06148   0.00666144     0.999747   0.00666144
      12.1668      1.06050   0.00629582     0.998336   0.00629582
      12.1890      1.05705   0.00964386      1.00077   0.00964386
      12.2112      1.05626   0.00790622      1.00036   0.00790622
      12.2334      1.07452   0.00822922     0.997008   0.00822922
      12.2556      1.06005   0.00887561     0.996409   0.00887561
      12.2777      1.06744    0.0147283     0.997799    0.0147283
      12.2999      1.06811   0.00607269     0.999208   0.00607269
      12.3221      1.06244   0.00986884     0.999188   0.00986884
      12.3443      1.05237   0.00742477     0.997793   0.00742477
      12.3665      1.07968    0.0197941     0.997485    0.0197941
      12.3887      1.05244    0.0143747     0.996696    0.0143747
      12.4109      1.06358    0.0138854     0.996198    0.0138854
      12.4330      1.06717    0.0100990     0.996872    0.0100990
      12.4552      1.07267   0.00891539     0.995291   0.00891539
      12.4774      1.06242   0.00867765     0.993230   0.00867765
      12.4996      1.07061    0.0112162      1.00000    0.0112162
      12.5218      1.05947   0.00543704     0.997930   0.00543704
      12.5440      1.06830   0.00891210      1.00201   0.00891210
      12.5662      1.06042   0.00538554     0.997686   0.00538554
      12.5883      1.06569   0.00692648     0.995721   0.00692648
      12.6105      1.08394   0.00734012     0.996014   0.00734012
      12.6327      1.07490    0.0101915     0.999729    0.0101915
      12.6549      1.04864   0.00690133      1.00071   0.00690133
      12.6771      1.08346   0.00718722      1.00946   0.00718722
      12.6993      1.07499   0.00909852     0.996878   0.00909852
      12.7214      1.08634    0.0115981      1.00777    0.0115981
      12.7436      1.08015   0.00858519     0.994474   0.00858519
      12.7658      1.08856    0.0138207      1.01016    0.0138207
      12.7880      1.07763   0.00775741      1.00122   0.00775741
      12.8102      1.06641    0.0101158     0.995940    0.0101158
      12.8324      1.09095   0.00844616     0.998146   0.00844616
      12.8546      1.08623    0.0146989     0.997333    0.0146989
      12.8767      1.09306   0.00896678      1.00115   0.00896678
      12.8989      1.09920    0.0151860      1.00381    0.0151860
      12.9211      1.08734    0.0101643     0.997637    0.0101643
      12.9433      1.08934    0.0123857     0.999684    0.0123857
      12.9655      1.10132   0.00872374     0.999689   0.00872374
      12.9877      1.07449    0.0151769      1.00457    0.0151769
      13.0098      1.09975    0.0135848     0.994550    0.0135848
      13.0320      1.09059    0.0155015     0.991044    0.0155015
      13.0542      1.08254    0.0104693     0.997021    0.0104693
      13.0764      1.09093    0.0140712      1.00295    0.0140712
      13.0986      1.01542    0.0157065      1.00484    0.0157065
      13.1208      1.09127    0.0163466      1.01904    0.0163466
      13.1430      1.05899    0.0222438     0.988298    0.0222438
      13.1651      1.07783    0.0409182      1.00510    0.0409182
      13.1873      1.12570    0.0280194     0.993402    0.0280194
      13.2095      1.15938    0.0543624      1.04633    0.0543624
      13.2317      1.09763    0.0572731      1.00610    0.0572731
      13.2539      1.10847     0.119840      1.00557     0.119840
      13.2761      1.14212     0.116355      1.00962     0.116355
      13.2982      1.28263     0.179374      1.06310     0.179374
      13.3204      2.15465     0.461353      1.02223     0.461353
      13.3426      1.90237     0.350918      1.10456     0.350918
      13.3648      4.84438      10.7877      1.66099      10.7877
      13.3870      4.09522      5.66498      1.61653      5.66498
      13.4092      3.94242      2.66557      1.31992      2.66557
      13.4314      3.02520      2.74792      2.47583      2.74792
      13.4535      1.51292     0.689454      1.06400     0.689454
      13.4757      2.46991     0.641266      2.68148     0.641266
      13.4979      1.58454     0.178925      1.09353     0.178925
      13.5201      1.21657     0.128206      1.01229     0.128206
      13.5423      3.06110     0.896149     0.994890     0.896149
      13.5645      2.01163     0.839409     0.991150     0.839409
      13.5867      2.71367     0.467948      1.19786     0.467948
      13.6088      1.63597     0.550205      1.06272     0.550205
      13.6310      1.05146     0.149848      1.04306     0.149848
      13.6532      5.19585     0.998324      30.9132     0.998324
      13.6754      1.98734     0.356322      1.06566     0.356322
      13.6976      2.07534      12.1134      1.25538      12.1134
      13.7198      1.44989     0.166967      1.19098     0.166967
      13.7419      3.47917     0.518755      6.62237     0.518755
      13.7641     0.950000     0.115840      1.03409     0.115840
      13.7863      5.56911      1.13851      1.61659      1.13851
      13.8085      1.23489     0.126446      1.03809     0.126446
      13.8307      2.54494     0.856758      1.15151     0.856758
      13.8529      1.42070     0.310814      1.07890     0.310814
      13.8751      3.78187      1.74962      1.01108      1.74962
      13.8972      1.36360     0.338170      1.03903     0.338170
      13.9194      1.94058     0.387156      1.58869     0.387156
      13.9416      1.53623     0.172309      1.07299     0.172309
      13.9638      1.18533     0.126252      1.00620     0.126252
      13.9860         -NaN          NaN         -NaN          NaN
