trecsN4.txt
 -- Radiance Enhancement %
Wavelength | Impact Enhancement | Impact Error | Background Enhancement | Backgrdound Error
      6.90903     0.950000     0.990926     0.950000     0.990926
      6.93121      1.38080     0.222862     0.991667     0.222862
      6.95340      1.36695     0.141544     0.982990     0.141544
      6.97558      1.45439     0.141080      1.02282     0.141080
      6.99777      1.82935     0.119514      1.16567     0.119514
      7.01995      1.34824     0.149200      1.01262     0.149200
      7.04214      1.38350     0.142190      1.02005     0.142190
      7.06432      1.37614     0.113587     0.972020     0.113587
      7.08651      1.61623     0.104438      1.14015     0.104438
      7.10869      1.44192     0.101351      1.00767     0.101351
      7.13088      1.15438     0.109954     0.971849     0.109954
      7.15306      1.38793    0.0910893      1.01562    0.0910893
      7.17525      1.62292     0.113855     0.983013     0.113855
      7.19743      2.15046     0.120365      1.08202     0.120365
      7.21962      1.07975     0.194630     0.962847     0.194630
      7.24180      1.31918    0.0932924      1.00685    0.0932924
      7.26399      1.48434     0.186447     0.994018     0.186447
      7.28617      2.71014     0.139597      1.29881     0.139597
      7.30836      1.76943     0.141434      1.10902     0.141434
      7.33054      1.85207    0.0956705      1.09350    0.0956705
      7.35273      2.48386     0.267089     0.997483     0.267089
      7.37491      1.29057     0.201866     0.988842     0.201866
      7.39710      1.45760     0.119103     0.979559     0.119103
      7.41928      1.38419     0.133010      1.01450     0.133010
      7.44146      1.68080     0.101359      1.16462     0.101359
      7.46365      1.44611     0.145912      1.01463     0.145912
      7.48583      1.36772     0.151509     0.997508     0.151509
      7.50802      1.33959     0.109600     0.970721     0.109600
      7.53020      1.55729     0.121423      1.12404     0.121423
      7.55239      1.41825     0.127844      1.02685     0.127844
      7.57457      1.13148     0.144695     0.991909     0.144695
      7.59676      1.38489     0.114050     0.996713     0.114050
      7.61894      1.67973     0.132292     0.990066     0.132292
      7.64113      2.61097     0.330904      1.07746     0.330904
      7.66331      1.23343     0.623733     0.968596     0.623733
      7.68550      1.85034     0.587890      1.03995     0.587890
      7.70768      3.74176     0.614332      1.02001     0.614332
      7.72987     0.950000     0.137785      1.22369     0.137785
      7.75205     0.950000     0.135717     0.988875     0.135717
      7.77424      1.21783    0.0640625      1.08676    0.0640625
      7.79642     0.979537    0.0285955      1.01112    0.0285955
      7.81861      1.01756    0.0407129     0.998819    0.0407129
      7.84079      1.01103    0.0289029      1.03410    0.0289029
      7.86298     0.950000    0.0216396      1.00182    0.0216396
      7.88516     0.969460    0.0129185     0.981462    0.0129185
      7.90735      1.02449    0.0217685     0.997439    0.0217685
      7.92953     0.993397    0.0245636      1.02374    0.0245636
      7.95171     0.977862    0.0218072      1.00683    0.0218072
      7.97390     0.981183    0.0205690     0.983445    0.0205690
      7.99608     0.989898    0.0233471      1.00857    0.0233471
      8.01827      1.01345    0.0267731      1.01058    0.0267731
      8.04045     0.980488    0.0246850     0.990252    0.0246850
      8.06264      1.03351    0.0267896      1.01755    0.0267896
      8.08482      1.03529    0.0155861     0.988157    0.0155861
      8.10701      1.02107    0.0186195      1.02209    0.0186195
      8.12919      1.03847    0.0173330     0.992973    0.0173330
      8.15138      1.05842    0.0240168     0.983185    0.0240168
      8.17356     0.986055    0.0224930     0.973846    0.0224930
      8.19575      1.01062    0.0197495     0.959452    0.0197495
      8.21793      1.08242    0.0211428     0.982107    0.0211428
      8.24012      1.05277    0.0179405     0.977969    0.0179405
      8.26230      1.06745    0.0252460     0.975584    0.0252460
      8.28449      1.06409    0.0272220     0.977149    0.0272220
      8.30667      1.05895    0.0250403     0.970430    0.0250403
      8.32886      1.05890    0.0240798     0.964809    0.0240798
      8.35104      1.05457    0.0226505     0.966666    0.0226505
      8.37323      1.07398    0.0300176     0.965904    0.0300176
      8.39541      1.06367    0.0283771     0.964907    0.0283771
      8.41760      1.05475    0.0263551     0.961871    0.0263551
      8.43978      1.05783    0.0273581     0.971982    0.0273581
      8.46197      1.09440    0.0270318     0.971727    0.0270318
      8.48415      1.06341    0.0256416     0.968676    0.0256416
      8.50633      1.08768    0.0320389     0.968145    0.0320389
      8.52852      1.08243    0.0244766     0.966314    0.0244766
      8.55070      1.08143    0.0215977     0.979179    0.0215977
      8.57289      1.07176    0.0173845     0.972481    0.0173845
      8.59507      1.06800    0.0197215     0.974821    0.0197215
      8.61726      1.06387    0.0251499     0.970805    0.0251499
      8.63944      1.06670    0.0199817     0.965552    0.0199817
      8.66163      1.06813    0.0230062     0.967624    0.0230062
      8.68381      1.06211    0.0227139     0.972537    0.0227139
      8.70600      1.07810    0.0278319     0.982863    0.0278319
      8.72818      1.08027    0.0203517     0.981623    0.0203517
      8.75037      1.10139    0.0148233     0.973857    0.0148233
      8.77255      1.12151    0.0188780     0.980004    0.0188780
      8.79474      1.09755    0.0182176     0.973492    0.0182176
      8.81692      1.09023    0.0245602     0.981441    0.0245602
      8.83911      1.12311    0.0185419     0.965463    0.0185419
      8.86129      1.18185    0.0178857     0.999197    0.0178857
      8.88348      1.16959    0.0192527     0.999475    0.0192527
      8.90566      1.17581    0.0193907     0.983699    0.0193907
      8.92785      1.23507    0.0171561     0.982655    0.0171561
      8.95003      1.12186    0.0199085     0.989754    0.0199085
      8.97222      1.13929    0.0209280     0.990141    0.0209280
      8.99440      1.19526    0.0165473     0.984228    0.0165473
      9.01659      1.17210    0.0129907     0.984697    0.0129907
      9.03877      1.13465    0.0114637     0.986347    0.0114637
      9.06095      1.14630    0.0185194     0.974677    0.0185194
      9.08314      1.18703    0.0151266      1.00112    0.0151266
      9.10532      1.21658    0.0137224     0.991005    0.0137224
      9.12751      1.19436    0.0132964     0.986826    0.0132964
      9.14969      1.23745    0.0172390     0.992174    0.0172390
      9.17188      1.27271    0.0170221     0.992060    0.0170221
      9.19406      1.28865    0.0112521     0.979120    0.0112521
      9.21625      1.30852    0.0135876     0.975619    0.0135876
      9.23843      1.32346    0.0162949     0.973335    0.0162949
      9.26062      1.32263    0.0198181     0.990095    0.0198181
      9.28280      1.37730    0.0141773     0.964321    0.0141773
      9.30499      1.42977    0.0126865     0.996493    0.0126865
      9.32717      1.44320    0.0164966     0.995572    0.0164966
      9.34936      1.41006    0.0177130     0.976119    0.0177130
      9.37154      1.46296    0.0190116     0.989774    0.0190116
      9.39373      1.35963    0.0231594      1.00311    0.0231594
      9.41591      1.34367    0.0363395     0.989562    0.0363395
      9.43810      1.44338    0.0217942     0.995149    0.0217942
      9.46028      1.46535    0.0292535     0.983357    0.0292535
      9.48247      1.45756    0.0134598     0.984627    0.0134598
      9.50465      1.52098    0.0273223     0.972761    0.0273223
      9.52684      1.61106    0.0184355      1.00487    0.0184355
      9.54902      1.59785    0.0267774     0.978260    0.0267774
      9.57121      1.42379    0.0224236     0.978779    0.0224236
      9.59339      1.46855    0.0377012     0.992830    0.0377012
      9.61557      1.46151    0.0319730     0.986631    0.0319730
      9.63776      1.54592    0.0199764     0.979563    0.0199764
      9.65994      1.65101    0.0258696     0.980609    0.0258696
      9.68213      1.52736    0.0281259     0.976023    0.0281259
      9.70431      1.50952    0.0373230     0.989214    0.0373230
      9.72650      1.52196    0.0518372     0.959241    0.0518372
      9.74868      1.51351    0.0393496     0.996410    0.0393496
      9.77087      1.43942    0.0203280      1.01128    0.0203280
      9.79305      1.45484    0.0206634     0.989715    0.0206634
      9.81524      1.60161    0.0226639     0.995035    0.0226639
      9.83742      1.53113    0.0174843      1.00908    0.0174843
      9.85961      1.53918    0.0231900     0.993650    0.0231900
      9.88179      1.59623    0.0132436     0.991253    0.0132436
      9.90398      1.51733    0.0156673     0.980921    0.0156673
      9.92616      1.42096    0.0107278     0.993904    0.0107278
      9.94835      1.36776    0.0170959     0.968653    0.0170959
      9.97053      1.41533    0.0118608     0.996727    0.0118608
      9.99272      1.40773    0.0127243     0.990530    0.0127243
      10.0149      1.38282    0.0133090     0.986263    0.0133090
      10.0371      1.43894    0.0125426     0.989371    0.0125426
      10.0593      1.41778    0.0124667     0.987793    0.0124667
      10.0815      1.40704    0.0101939     0.984728    0.0101939
      10.1036      1.37690    0.0120016     0.972599    0.0120016
      10.1258      1.31171    0.0106776     0.984195    0.0106776
      10.1480      1.27968    0.0142902     0.988488    0.0142902
      10.1702      1.27467    0.0104995     0.981285    0.0104995
      10.1924      1.31372    0.0127150     0.994258    0.0127150
      10.2146      1.30866    0.0139513     0.993616    0.0139513
      10.2367      1.34802    0.0115790     0.989508    0.0115790
      10.2589      1.45019    0.0122709     0.993700    0.0122709
      10.2811      1.51107    0.0135443     0.988883    0.0135443
      10.3033      1.59809    0.0158712     0.990016    0.0158712
      10.3255      1.64413    0.0109428     0.987237    0.0109428
      10.3477      1.53418    0.0233918     0.979423    0.0233918
      10.3699      1.47109    0.0249046     0.985508    0.0249046
      10.3920      1.36513    0.0103476     0.979181    0.0103476
      10.4142      1.36733   0.00753290      1.00153   0.00753290
      10.4364      1.34919    0.0106509     0.989863    0.0106509
      10.4586      1.34368    0.0158845     0.995866    0.0158845
      10.4808      1.33508    0.0162055     0.987297    0.0162055
      10.5030      1.35791    0.0168355     0.990776    0.0168355
      10.5252      1.35047    0.0133137     0.995053    0.0133137
      10.5473      1.30928    0.0211756     0.983764    0.0211756
      10.5695      1.30037    0.0101686     0.992206    0.0101686
      10.5917      1.27360    0.0108799     0.998266    0.0108799
      10.6139      1.31326   0.00976212     0.998261   0.00976212
      10.6361      1.31564    0.0142710     0.982733    0.0142710
      10.6583      1.39342   0.00964565     0.988530   0.00964565
      10.6804      1.49541    0.0113994     0.996846    0.0113994
      10.7026      1.56681    0.0149703     0.978629    0.0149703
      10.7248      1.61458    0.0115507     0.989604    0.0115507
      10.7470      1.53595    0.0147822     0.982634    0.0147822
      10.7692      1.49289    0.0143703     0.983812    0.0143703
      10.7914      1.40785   0.00997144     0.976813   0.00997144
      10.8136      1.35592    0.0127018     0.994957    0.0127018
      10.8357      1.30451    0.0114842     0.993552    0.0114842
      10.8579      1.24131    0.0197452     0.988455    0.0197452
      10.8801      1.24671    0.0145243     0.986054    0.0145243
      10.9023      1.23489    0.0131872      1.00279    0.0131872
      10.9245      1.23959    0.0188177     0.989718    0.0188177
      10.9467      1.24436    0.0137373     0.993576    0.0137373
      10.9688      1.29373    0.0110272     0.997337    0.0110272
      10.9910      1.29502    0.0210811     0.991803    0.0210811
      11.0132      1.27985   0.00864860     0.990212   0.00864860
      11.0354      1.25445    0.0101754     0.996995    0.0101754
      11.0576      1.24993    0.0113477     0.996135    0.0113477
      11.0798      1.23700    0.0149654     0.991686    0.0149654
      11.1020      1.21059   0.00779932     0.986922   0.00779932
      11.1241      1.22630    0.0103847     0.997507    0.0103847
      11.1463      1.24585    0.0129299     0.991443    0.0129299
      11.1685      1.26480    0.0113640     0.998791    0.0113640
      11.1907      1.27438    0.0118174     0.995007    0.0118174
      11.2129      1.29435    0.0133513     0.989605    0.0133513
      11.2351      1.26364    0.0121772     0.981197    0.0121772
      11.2572      1.24580    0.0115549     0.995905    0.0115549
      11.2794      1.22776    0.0125728     0.994388    0.0125728
      11.3016      1.19014    0.0100154     0.989302    0.0100154
      11.3238      1.17953    0.0101719     0.992975    0.0101719
      11.3460      1.16775    0.0116123     0.994464    0.0116123
      11.3682      1.16245    0.0162188     0.991401    0.0162188
      11.3904      1.17014    0.0128546     0.992645    0.0128546
      11.4125      1.17762   0.00951020     0.996679   0.00951020
      11.4347      1.17031    0.0201308     0.989010    0.0201308
      11.4569      1.20180   0.00952713     0.994104   0.00952713
      11.4791      1.17633    0.0114308     0.993528    0.0114308
      11.5013      1.17864   0.00823225     0.998201   0.00823225
      11.5235      1.13748    0.0192115     0.976527    0.0192115
      11.5457      1.13015   0.00935214     0.987480   0.00935214
      11.5678      1.13657    0.0130430     0.985782    0.0130430
      11.5900      1.11462    0.0113478     0.997110    0.0113478
      11.6122      1.10442    0.0113118     0.987085    0.0113118
      11.6344      1.10720    0.0109857     0.994760    0.0109857
      11.6566      1.11648    0.0124636     0.985106    0.0124636
      11.6788      1.12753    0.0109624     0.987722    0.0109624
      11.7009      1.11233    0.0105231     0.991419    0.0105231
      11.7231      1.12933   0.00999322     0.995703   0.00999322
      11.7453      1.11423   0.00915349     0.993522   0.00915349
      11.7675      1.10566   0.00948491     0.983618   0.00948491
      11.7897      1.10206    0.0125040     0.992765    0.0125040
      11.8119      1.09968    0.0134287     0.984808    0.0134287
      11.8341      1.08277    0.0134270     0.989847    0.0134270
      11.8562      1.08929   0.00997239     0.992639   0.00997239
      11.8784      1.06990    0.0125569     0.987036    0.0125569
      11.9006      1.07638    0.0139516     0.991311    0.0139516
      11.9228      1.06872    0.0137837     0.995295    0.0137837
      11.9450      1.06997   0.00749048     0.995379   0.00749048
      11.9672      1.05262    0.0134177     0.988181    0.0134177
      11.9893      1.07065   0.00958215     0.988361   0.00958215
      12.0115      1.07435    0.0112937     0.986623    0.0112937
      12.0337      1.07395    0.0120062     0.990010    0.0120062
      12.0559      1.05841   0.00953279     0.991289   0.00953279
      12.0781      1.06698    0.0129606     0.987448    0.0129606
      12.1003      1.04472    0.0136141     0.988270    0.0136141
      12.1225      1.06092   0.00997927     0.984173   0.00997927
      12.1446      1.05507    0.0117191     0.992163    0.0117191
      12.1668      1.06791   0.00749634     0.994080   0.00749634
      12.1890      1.05543    0.0136446     0.989985    0.0136446
      12.2112      1.05704   0.00771017     0.993130   0.00771017
      12.2334      1.05403    0.0103530     0.987311    0.0103530
      12.2556      1.05231   0.00938313     0.988451   0.00938313
      12.2777      1.06610   0.00768880     0.992014   0.00768880
      12.2999      1.05279   0.00738808     0.989509   0.00738808
      12.3221      1.06966   0.00897971     0.994243   0.00897971
      12.3443      1.05011    0.0106668     0.989782    0.0106668
      12.3665      1.08423    0.0169918     0.994113    0.0169918
      12.3887      1.05080    0.0137966     0.987054    0.0137966
      12.4109      1.08443    0.0100743     0.991652    0.0100743
      12.4330      1.05032   0.00869702     0.996466   0.00869702
      12.4552      1.05197   0.00968247     0.994663   0.00968247
      12.4774      1.06267   0.00923399     0.992330   0.00923399
      12.4996      1.05710   0.00609915     0.994921   0.00609915
      12.5218      1.05659   0.00552081      1.00026   0.00552081
      12.5440      1.05353   0.00695971     0.996067   0.00695971
      12.5662      1.07362   0.00811537     0.998362   0.00811537
      12.5883      1.08433   0.00883191     0.990016   0.00883191
      12.6105      1.05284   0.00631867     0.995389   0.00631867
      12.6327      1.06683    0.0106171     0.991320    0.0106171
      12.6549      1.05456    0.0100750     0.989237    0.0100750
      12.6771      1.07097    0.0113394     0.992345    0.0113394
      12.6993      1.05932   0.00963564     0.985298   0.00963564
      12.7214      1.07749    0.0117191     0.995699    0.0117191
      12.7436      1.06508   0.00763670     0.993351   0.00763670
      12.7658      1.08662    0.0100823     0.989655    0.0100823
      12.7880      1.07890   0.00928816     0.997852   0.00928816
      12.8102      1.10351    0.0108986      1.00875    0.0108986
      12.8324      1.07659    0.0122419     0.989474    0.0122419
      12.8546      1.09549    0.0118194     0.986472    0.0118194
      12.8767      1.07706   0.00818564      1.00013   0.00818564
      12.8989      1.07140    0.0100205     0.996929    0.0100205
      12.9211      1.07315    0.0118482     0.996989    0.0118482
      12.9433      1.08098   0.00836865      1.00192   0.00836865
      12.9655      1.07701   0.00698509     0.998986   0.00698509
      12.9877      1.06454    0.0102298      1.00127    0.0102298
      13.0098      1.07625    0.0122654      1.00192    0.0122654
      13.0320      1.10229    0.0154009     0.996977    0.0154009
      13.0542      1.07002   0.00952119      1.00032   0.00952119
      13.0764      1.06115    0.0160690     0.989372    0.0160690
      13.0986      1.07090    0.0180503     0.983892    0.0180503
      13.1208      1.04773    0.0225411     0.998892    0.0225411
      13.1430      1.07284    0.0232715     0.997887    0.0232715
      13.1651      1.12898    0.0197804     0.999034    0.0197804
      13.1873      1.06880    0.0318653     0.988175    0.0318653
      13.2095      1.16257    0.0884591     0.990451    0.0884591
      13.2317      1.08659    0.0489242      1.00486    0.0489242
      13.2539      1.69613     0.115917      1.15209     0.115917
      13.2761      1.05677     0.114130     0.976879     0.114130
      13.2982      1.58752     0.201411     0.958045     0.201411
      13.3204      1.30066     0.595284      1.25966     0.595284
      13.3426      1.36975     0.539926      1.22155     0.539926
      13.3648      15.0464      2.26031      1.91375      2.26031
      13.3870      2.18212      1.09769      1.72003      1.09769
      13.4092      2.09953      33.1158      1.55672      33.1158
      13.4314      1.63502      2.97693      1.06936      2.97693
      13.4535      1.86303     0.269381     0.958646     0.269381
      13.4757      2.18383      2.42770      1.10679      2.42770
      13.4979      1.77013     0.150740      1.00021     0.150740
      13.5201      16.6460      1.91294      3.86472      1.91294
      13.5423      1.78116     0.215565      1.32531     0.215565
      13.5645      4.45230      1.69865      1.17310      1.69865
      13.5867      1.45259      1.36270      1.08147      1.36270
      13.6088      1.43510     0.368281      1.11001     0.368281
      13.6310      1.30356      1.19791      1.07616      1.19791
      13.6532      1.87616      5.60892      1.15903      5.60892
      13.6754      1.47682     0.129505      1.02657     0.129505
      13.6976      11.4423     0.717016      2.41857     0.717016
      13.7198      1.56678     0.235383      1.18421     0.235383
      13.7419      8.00060      3.13358      1.01262      3.13358
      13.7641      1.48877     0.186722     0.976006     0.186722
      13.7863      1.52673      2.30248      1.04910      2.30248
      13.8085      1.24907     0.158305      1.07645     0.158305
      13.8307      1.85317     0.536940      1.04714     0.536940
      13.8529      2.55450     0.347909     0.975255     0.347909
      13.8751      1.41053     0.260378      1.02005     0.260378
      13.8972      1.50243     0.188944     0.977803     0.188944
      13.9194      1.66518      1.65074      1.06669      1.65074
      13.9416      1.70395     0.130021     0.988328     0.130021
      13.9638      8.80193     0.759602      2.33213     0.759602
      13.9860         -NaN          NaN         -NaN          NaN
